# fe1_exp_030_065_photoabs_2003Rod.dat                   
#
# Z = 30, A = 65
# No. of entries:  181
# Col 1: photon energy E in MeV
# Col 2: bin width dE in MeV
# Col 3: dipole strength f1 in MeV^-3
# Col 4: uncertainty df1 in MeV^-3
# Format: 2f10.3, 2e13.3
# Author:   2003Rod  T.E.Rodrigues, J.D.T.Arruda-Neto, Z.Carvalheiro, et al.,; Phys.Rev. C 68, 014618(2003).                                                     
#    E         dE       f1           df1
    12.000     0.000    0.702E-07    0.000E+00
    12.050     0.000    0.713E-07    0.000E+00
    12.100     0.000    0.724E-07    0.000E+00
    12.150     0.000    0.735E-07    0.000E+00
    12.200     0.000    0.747E-07    0.000E+00
    12.250     0.000    0.758E-07    0.000E+00
    12.300     0.000    0.769E-07    0.000E+00
    12.350     0.000    0.787E-07    0.000E+00
    12.400     0.000    0.797E-07    0.000E+00
    12.450     0.000    0.808E-07    0.000E+00
    12.500     0.000    0.826E-07    0.000E+00
    12.550     0.000    0.836E-07    0.000E+00
    12.600     0.000    0.854E-07    0.000E+00
    12.650     0.000    0.864E-07    0.000E+00
    12.700     0.000    0.881E-07    0.000E+00
    12.750     0.000    0.898E-07    0.000E+00
    12.800     0.000    0.915E-07    0.000E+00
    12.850     0.000    0.925E-07    0.000E+00
    12.900     0.000    0.941E-07    0.000E+00
    12.950     0.000    0.964E-07    0.000E+00
    13.000     0.000    0.981E-07    0.000E+00
    13.050     0.000    0.997E-07    0.000E+00
    13.100     0.000    0.102E-06    0.000E+00
    13.150     0.000    0.104E-06    0.000E+00
    13.200     0.000    0.106E-06    0.000E+00
    13.250     0.000    0.107E-06    0.000E+00
    13.300     0.000    0.110E-06    0.000E+00
    13.350     0.000    0.112E-06    0.000E+00
    13.400     0.000    0.114E-06    0.000E+00
    13.450     0.000    0.116E-06    0.000E+00
    13.500     0.000    0.119E-06    0.000E+00
    13.550     0.000    0.121E-06    0.000E+00
    13.600     0.000    0.124E-06    0.000E+00
    13.650     0.000    0.126E-06    0.000E+00
    13.700     0.000    0.129E-06    0.000E+00
    13.750     0.000    0.132E-06    0.000E+00
    13.800     0.000    0.135E-06    0.000E+00
    13.850     0.000    0.138E-06    0.000E+00
    13.900     0.000    0.140E-06    0.000E+00
    13.950     0.000    0.144E-06    0.000E+00
    14.000     0.000    0.147E-06    0.000E+00
    14.050     0.000    0.150E-06    0.000E+00
    14.100     0.000    0.154E-06    0.000E+00
    14.150     0.000    0.157E-06    0.000E+00
    14.200     0.000    0.161E-06    0.000E+00
    14.250     0.000    0.164E-06    0.000E+00
    14.300     0.000    0.168E-06    0.000E+00
    14.350     0.000    0.172E-06    0.000E+00
    14.400     0.000    0.176E-06    0.000E+00
    14.450     0.000    0.181E-06    0.000E+00
    14.500     0.000    0.185E-06    0.000E+00
    14.550     0.000    0.190E-06    0.000E+00
    14.600     0.000    0.194E-06    0.000E+00
    14.650     0.000    0.198E-06    0.000E+00
    14.700     0.000    0.204E-06    0.000E+00
    14.750     0.000    0.208E-06    0.000E+00
    14.800     0.000    0.213E-06    0.000E+00
    14.850     0.000    0.218E-06    0.000E+00
    14.900     0.000    0.224E-06    0.000E+00
    14.950     0.000    0.229E-06    0.000E+00
    15.000     0.000    0.235E-06    0.000E+00
    15.050     0.000    0.240E-06    0.000E+00
    15.100     0.000    0.246E-06    0.000E+00
    15.150     0.000    0.251E-06    0.000E+00
    15.200     0.000    0.257E-06    0.000E+00
    15.250     0.000    0.263E-06    0.000E+00
    15.300     0.000    0.269E-06    0.000E+00
    15.350     0.000    0.275E-06    0.000E+00
    15.400     0.000    0.280E-06    0.000E+00
    15.450     0.000    0.286E-06    0.000E+00
    15.500     0.000    0.292E-06    0.000E+00
    15.550     0.000    0.297E-06    0.000E+00
    15.600     0.000    0.302E-06    0.000E+00
    15.650     0.000    0.308E-06    0.000E+00
    15.700     0.000    0.313E-06    0.000E+00
    15.750     0.000    0.318E-06    0.000E+00
    15.800     0.000    0.322E-06    0.000E+00
    15.850     0.000    0.327E-06    0.000E+00
    15.900     0.000    0.331E-06    0.000E+00
    15.950     0.000    0.334E-06    0.000E+00
    16.000     0.000    0.338E-06    0.000E+00
    16.050     0.000    0.341E-06    0.000E+00
    16.100     0.000    0.344E-06    0.000E+00
    16.150     0.000    0.346E-06    0.000E+00
    16.200     0.000    0.348E-06    0.000E+00
    16.250     0.000    0.350E-06    0.000E+00
    16.300     0.000    0.351E-06    0.000E+00
    16.350     0.000    0.352E-06    0.000E+00
    16.400     0.000    0.352E-06    0.000E+00
    16.450     0.000    0.352E-06    0.000E+00
    16.500     0.000    0.352E-06    0.000E+00
    16.550     0.000    0.352E-06    0.000E+00
    16.600     0.000    0.352E-06    0.000E+00
    16.650     0.000    0.351E-06    0.000E+00
    16.700     0.000    0.350E-06    0.000E+00
    16.750     0.000    0.349E-06    0.000E+00
    16.800     0.000    0.347E-06    0.000E+00
    16.850     0.000    0.346E-06    0.000E+00
    16.900     0.000    0.345E-06    0.000E+00
    16.950     0.000    0.343E-06    0.000E+00
    17.000     0.000    0.342E-06    0.000E+00
    17.050     0.000    0.340E-06    0.000E+00
    17.100     0.000    0.339E-06    0.000E+00
    17.150     0.000    0.337E-06    0.000E+00
    17.200     0.000    0.336E-06    0.000E+00
    17.250     0.000    0.334E-06    0.000E+00
    17.300     0.000    0.333E-06    0.000E+00
    17.350     0.000    0.331E-06    0.000E+00
    17.400     0.000    0.330E-06    0.000E+00
    17.450     0.000    0.329E-06    0.000E+00
    17.500     0.000    0.328E-06    0.000E+00
    17.550     0.000    0.326E-06    0.000E+00
    17.600     0.000    0.325E-06    0.000E+00
    17.650     0.000    0.324E-06    0.000E+00
    17.700     0.000    0.323E-06    0.000E+00
    17.750     0.000    0.323E-06    0.000E+00
    17.800     0.000    0.322E-06    0.000E+00
    17.850     0.000    0.321E-06    0.000E+00
    17.900     0.000    0.320E-06    0.000E+00
    17.950     0.000    0.319E-06    0.000E+00
    18.000     0.000    0.319E-06    0.000E+00
    18.050     0.000    0.318E-06    0.000E+00
    18.100     0.000    0.318E-06    0.000E+00
    18.150     0.000    0.317E-06    0.000E+00
    18.200     0.000    0.316E-06    0.000E+00
    18.250     0.000    0.316E-06    0.000E+00
    18.300     0.000    0.315E-06    0.000E+00
    18.350     0.000    0.314E-06    0.000E+00
    18.400     0.000    0.313E-06    0.000E+00
    18.450     0.000    0.313E-06    0.000E+00
    18.500     0.000    0.312E-06    0.000E+00
    18.550     0.000    0.311E-06    0.000E+00
    18.600     0.000    0.311E-06    0.000E+00
    18.650     0.000    0.310E-06    0.000E+00
    18.700     0.000    0.308E-06    0.000E+00
    18.750     0.000    0.308E-06    0.000E+00
    18.800     0.000    0.306E-06    0.000E+00
    18.850     0.000    0.305E-06    0.000E+00
    18.900     0.000    0.304E-06    0.000E+00
    18.950     0.000    0.303E-06    0.000E+00
    19.000     0.000    0.301E-06    0.000E+00
    19.050     0.000    0.300E-06    0.000E+00
    19.100     0.000    0.298E-06    0.000E+00
    19.150     0.000    0.296E-06    0.000E+00
    19.200     0.000    0.295E-06    0.000E+00
    19.250     0.000    0.292E-06    0.000E+00
    19.300     0.000    0.291E-06    0.000E+00
    19.350     0.000    0.289E-06    0.000E+00
    19.400     0.000    0.286E-06    0.000E+00
    19.450     0.000    0.284E-06    0.000E+00
    19.500     0.000    0.282E-06    0.000E+00
    19.550     0.000    0.280E-06    0.000E+00
    19.600     0.000    0.277E-06    0.000E+00
    19.650     0.000    0.274E-06    0.000E+00
    19.700     0.000    0.272E-06    0.000E+00
    19.750     0.000    0.269E-06    0.000E+00
    19.800     0.000    0.266E-06    0.000E+00
    19.850     0.000    0.263E-06    0.000E+00
    19.900     0.000    0.261E-06    0.000E+00
    19.950     0.000    0.258E-06    0.000E+00
    20.000     0.000    0.255E-06    0.000E+00
    20.050     0.000    0.252E-06    0.000E+00
    20.100     0.000    0.249E-06    0.000E+00
    20.150     0.000    0.246E-06    0.000E+00
    20.200     0.000    0.243E-06    0.000E+00
    20.250     0.000    0.239E-06    0.000E+00
    20.300     0.000    0.236E-06    0.000E+00
    20.350     0.000    0.233E-06    0.000E+00
    20.400     0.000    0.230E-06    0.000E+00
    20.450     0.000    0.227E-06    0.000E+00
    20.500     0.000    0.224E-06    0.000E+00
    20.550     0.000    0.221E-06    0.000E+00
    20.600     0.000    0.217E-06    0.000E+00
    20.650     0.000    0.214E-06    0.000E+00
    20.700     0.000    0.211E-06    0.000E+00
    20.750     0.000    0.208E-06    0.000E+00
    20.800     0.000    0.205E-06    0.000E+00
    20.850     0.000    0.202E-06    0.000E+00
    20.900     0.000    0.199E-06    0.000E+00
    20.950     0.000    0.196E-06    0.000E+00
    21.000     0.000    0.193E-06    0.000E+00
